File: Data/Benzoic_Acid_DSC_Data.csv
Instrument name,DSC2A-00468
Operator,Yarger
Sample name,Benzoic_Acid
[step]
Ramp 5.00 °C/min to 150.00 °C
Time,Temperature,Heat Flow (Normalized)
min,°C,W/g
0.00,30.07,-0.007
0.08,30.10,-0.006
0.16,30.28,0.029
0.24,30.59,0.055
0.32,30.95,0.064
0.40,31.33,0.067
0.48,31.72,0.070
0.56,32.12,0.073
0.64,32.51,0.074
0.72,32.91,0.075
0.80,33.31,0.075
0.88,33.71,0.076
0.96,34.11,0.075
1.04,34.51,0.075
1.12,34.90,0.075
1.20,35.30,0.075
1.28,35.70,0.074
1.36,36.10,0.074
1.44,36.50,0.074
1.52,36.90,0.073
1.60,37.30,0.073
1.68,37.70,0.073
1.76,38.10,0.073
1.84,38.50,0.073
1.92,38.90,0.073
2.00,39.30,0.072
2.08,39.70,0.072
2.16,40.10,0.072
2.24,40.50,0.072
2.32,40.90,0.072
2.40,41.30,0.072
2.48,41.70,0.072
2.56,42.10,0.071
2.64,42.50,0.071
2.72,42.90,0.071
2.80,43.30,0.071
2.88,43.70,0.071
2.96,44.10,0.071
3.04,44.50,0.071
3.12,44.90,0.071
3.20,45.30,0.071
3.28,45.70,0.071
3.36,46.10,0.071
3.44,46.51,0.071
3.52,46.91,0.071
3.60,47.31,0.071
3.68,47.71,0.071
3.76,48.11,0.071
3.84,48.51,0.071
3.92,48.91,0.071
4.00,49.31,0.071
4.08,49.71,0.071
4.16,50.11,0.071
4.24,50.51,0.071
4.32,50.91,0.071
4.40,51.31,0.071
4.48,51.71,0.071
4.56,52.11,0.071
4.64,52.51,0.071
4.72,52.91,0.071
4.80,53.31,0.071
4.88,53.71,0.071
4.96,54.11,0.071
5.04,54.51,0.071
5.12,54.91,0.071
5.20,55.31,0.071
5.28,55.71,0.071
5.36,56.11,0.071
5.44,56.51,0.071
5.52,56.91,0.071
5.60,57.31,0.071
5.68,57.71,0.071
5.76,58.11,0.072
5.84,58.51,0.072
5.92,58.91,0.072
6.00,59.31,0.072
6.08,59.71,0.072
6.16,60.11,0.072
6.24,60.51,0.072
6.32,60.91,0.072
6.40,61.31,0.072
6.48,61.71,0.072
6.56,62.11,0.072
6.64,62.51,0.072
6.72,62.91,0.072
6.80,63.31,0.072
6.88,63.71,0.072
6.96,64.11,0.072
7.04,64.51,0.072
7.12,64.91,0.072
7.20,65.31,0.072
7.28,65.71,0.072
7.36,66.11,0.072
7.44,66.51,0.072
7.52,66.91,0.072
7.60,67.31,0.072
7.68,67.71,0.072
7.76,68.12,0.072
7.84,68.52,0.072
7.92,68.92,0.072
8.00,69.32,0.072
8.08,69.71,0.073
8.16,70.12,0.073
8.24,70.52,0.073
8.32,70.92,0.073
8.40,71.32,0.073
8.48,71.72,0.073
8.56,72.12,0.073
8.64,72.52,0.073
8.72,72.92,0.073
8.80,73.32,0.073
8.88,73.72,0.073
8.96,74.12,0.073
9.04,74.52,0.073
9.12,74.92,0.073
9.20,75.32,0.073
9.28,75.72,0.073
9.36,76.12,0.073
9.44,76.52,0.073
9.52,76.92,0.073
9.60,77.32,0.073
9.68,77.72,0.073
9.76,78.12,0.073
9.84,78.52,0.073
9.92,78.92,0.073
10.00,79.32,0.073
10.08,79.72,0.073
10.16,80.12,0.073
10.24,80.52,0.073
10.32,80.92,0.073
10.40,81.32,0.074
10.48,81.72,0.074
10.56,82.12,0.074
10.64,82.52,0.074
10.72,82.92,0.074
10.80,83.32,0.074
10.88,83.72,0.074
10.96,84.12,0.074
11.04,84.52,0.074
11.12,84.92,0.074
11.20,85.32,0.074
11.28,85.72,0.074
11.36,86.12,0.074
11.44,86.52,0.074
11.52,86.92,0.074
11.60,87.32,0.074
11.68,87.72,0.074
11.76,88.12,0.074
11.84,88.52,0.074
11.92,88.92,0.075
12.00,89.32,0.075
12.08,89.72,0.075
12.16,90.12,0.075
12.24,90.53,0.075
12.32,90.92,0.075
12.40,91.32,0.075
12.48,91.73,0.075
12.56,92.13,0.075
12.64,92.53,0.075
12.72,92.92,0.075
12.80,93.33,0.075
12.88,93.73,0.075
12.96,94.13,0.075
13.04,94.53,0.075
13.12,94.93,0.075
13.20,95.33,0.075
13.28,95.73,0.075
13.36,96.13,0.075
13.44,96.53,0.075
13.52,96.93,0.075
13.60,97.33,0.075
13.68,97.73,0.075
13.76,98.13,0.075
13.84,98.53,0.075
13.92,98.93,0.075
14.00,99.33,0.075
14.08,99.73,0.075
14.16,100.13,0.075
14.24,100.53,0.076
14.32,100.93,0.076
14.40,101.33,0.076
14.48,101.73,0.076
14.56,102.13,0.076
14.64,102.53,0.076
14.72,102.93,0.076
14.80,103.33,0.076
14.88,103.73,0.076
14.96,104.13,0.077
15.04,104.53,0.076
15.12,104.93,0.077
15.20,105.33,0.077
15.28,105.73,0.077
15.36,106.13,0.077
15.44,106.53,0.077
15.52,106.93,0.077
15.60,107.33,0.077
15.68,107.73,0.077
15.76,108.13,0.077
15.84,108.53,0.077
15.92,108.93,0.077
16.00,109.33,0.077
16.08,109.73,0.077
16.16,110.13,0.077
16.24,110.53,0.078
16.32,110.93,0.078
16.40,111.33,0.078
16.48,111.73,0.078
16.56,112.13,0.078
16.64,112.53,0.078
16.72,112.93,0.078
16.80,113.33,0.078
16.88,113.73,0.079
16.96,114.14,0.079
17.04,114.54,0.080
17.12,114.94,0.080
17.20,115.33,0.080
17.28,115.73,0.081
17.36,116.13,0.081
17.44,116.53,0.082
17.52,116.93,0.083
17.60,117.33,0.084
17.68,117.73,0.086
17.76,118.13,0.087
17.84,118.53,0.090
17.92,118.93,0.093
18.00,119.33,0.098
18.08,119.73,0.111
18.16,120.13,0.144
18.24,120.52,0.211
18.32,120.91,0.350
18.40,121.27,0.771
18.48,121.58,1.841
18.56,121.79,3.637
18.64,121.95,5.298
18.72,122.20,5.847
18.80,122.54,5.925
18.88,122.96,5.786
18.96,123.70,1.265
19.04,124.37,0.543
19.12,124.87,0.275
19.20,125.31,0.175
19.28,125.72,0.141
19.36,126.13,0.131
19.44,126.53,0.128
19.52,126.93,0.125
19.60,127.33,0.123
19.68,127.73,0.122
19.76,128.13,0.121
19.84,128.53,0.120
19.92,128.93,0.120
20.00,129.33,0.119
20.08,129.73,0.119
20.16,130.13,0.119
20.24,130.53,0.119
20.32,130.93,0.119
20.40,131.33,0.119
20.48,131.73,0.119
20.56,132.13,0.119
20.64,132.53,0.119
20.72,132.93,0.119
20.80,133.33,0.119
20.88,133.73,0.119
20.96,134.13,0.119
21.04,134.54,0.119
21.12,134.93,0.119
21.20,135.33,0.119
21.28,135.73,0.119
21.36,136.13,0.119
21.44,136.53,0.119
21.52,136.93,0.119
21.60,137.33,0.119
21.68,137.74,0.120
21.76,138.14,0.120
21.84,138.54,0.120
21.92,138.94,0.120
22.00,139.33,0.120
22.08,139.73,0.120
22.16,140.14,0.120
22.24,140.54,0.120
22.32,140.94,0.120
22.40,141.34,0.120
22.48,141.74,0.120
22.56,142.14,0.120
22.64,142.54,0.121
22.72,142.94,0.120
22.80,143.34,0.121
22.88,143.74,0.121
22.96,144.14,0.121
23.04,144.54,0.121
23.12,144.94,0.121
23.20,145.34,0.121
23.28,145.74,0.121
23.36,146.14,0.121
23.44,146.54,0.121
23.52,146.94,0.122
23.60,147.34,0.122
23.68,147.74,0.122
23.76,148.14,0.122
23.84,148.54,0.122
23.92,148.94,0.122
24.00,,

[step]
Ramp 5.00 °C/min to 30.00 °C
Time,Temperature,Heat Flow (Normalized)
min,°C,W/g
25.00,150.06,-0.043
25.08,150.04,-0.044
25.16,149.86,-0.117
25.24,149.54,-0.177
25.32,149.17,-0.192
25.40,148.79,-0.200
25.48,148.39,-0.202
25.56,148.00,-0.203
25.64,147.60,-0.204
25.72,147.20,-0.204
25.80,146.81,-0.204
25.88,146.41,-0.204
25.96,146.01,-0.204
26.04,145.61,-0.204
26.12,145.21,-0.203
26.20,144.81,-0.203
26.28,144.42,-0.202
26.36,144.02,-0.202
26.44,143.62,-0.201
26.52,143.22,-0.200
26.60,142.82,-0.200
26.68,142.42,-0.199
26.76,142.02,-0.199
26.84,141.62,-0.198
26.92,141.22,-0.198
27.00,140.82,-0.197
27.08,140.42,-0.197
27.16,140.02,-0.196
27.24,139.62,-0.195
27.32,139.22,-0.195
27.40,138.82,-0.194
27.48,138.42,-0.194
27.56,138.02,-0.193
27.64,137.62,-0.193
27.72,137.22,-0.192
27.80,136.82,-0.192
27.88,136.42,-0.192
27.96,136.02,-0.191
28.04,135.62,-0.191
28.12,135.22,-0.191
28.20,134.82,-0.190
28.28,134.42,-0.190
28.36,134.02,-0.189
28.44,133.62,-0.189
28.52,133.22,-0.189
28.60,132.82,-0.188
28.68,132.43,-0.188
28.76,132.03,-0.187
28.84,131.63,-0.186
28.92,131.23,-0.187
29.00,130.82,-0.186
29.08,130.42,-0.186
29.16,130.02,-0.186
29.24,129.63,-0.185
29.32,129.23,-0.185
29.40,128.83,-0.185
29.48,128.43,-0.184
29.56,128.03,-0.184
29.64,127.63,-0.184
29.72,127.23,-0.184
29.80,126.83,-0.184
29.88,126.43,-0.183
29.96,126.03,-0.183
30.04,125.63,-0.183
30.12,125.23,-0.182
30.20,124.83,-0.182
30.28,124.43,-0.182
30.36,124.03,-0.182
30.44,123.63,-0.182
30.52,123.23,-0.182
30.60,122.83,-0.181
30.68,122.43,-0.181
30.76,122.03,-0.180
30.84,121.63,-0.180
30.92,121.23,-0.180
31.00,120.83,-0.180
31.08,120.43,-0.179
31.16,120.03,-0.179
31.24,119.63,-0.179
31.32,119.23,-0.178
31.40,118.83,-0.178
31.48,118.43,-0.178
31.56,118.03,-0.178
31.64,117.63,-0.177
31.72,117.23,-0.177
31.80,116.83,-0.177
31.88,116.43,-0.177
31.96,116.03,-0.176
32.04,115.63,-0.176
32.12,115.23,-0.176
32.20,114.83,-0.175
32.28,114.43,-0.175
32.36,114.03,-0.175
32.44,113.63,-0.175
32.52,113.24,-0.174
32.60,112.84,-0.174
32.68,112.44,-0.174
32.76,112.04,-0.174
32.84,111.64,-0.173
32.92,111.24,-0.173
33.00,110.84,-0.173
33.08,110.44,-0.173
33.16,110.04,-0.173
33.24,109.64,-0.172
33.32,109.23,-0.172
33.40,108.84,-0.172
33.48,108.44,-0.171
33.56,108.04,-0.171
33.64,107.64,-0.171
33.72,107.24,-0.171
33.80,106.84,-0.171
33.88,106.44,-0.171
33.96,106.04,-0.170
34.04,105.64,-0.170
34.12,105.24,-0.170
34.20,104.84,-0.170
34.28,104.44,-0.170
34.36,104.04,-0.169
34.44,103.64,-0.169
34.52,103.24,-0.169
34.60,102.84,-0.169
34.68,102.44,-0.169
34.76,102.04,-0.168
34.84,101.64,-0.168
34.92,101.24,-0.168
35.00,100.84,-0.168
35.08,100.44,-0.167
35.16,100.04,-0.167
35.24,99.64,-0.167
35.32,99.24,-0.166
35.40,98.84,-0.166
35.48,98.44,-0.166
35.56,98.16,-30.206
35.64,99.33,-1.775
35.72,97.87,-0.766
35.80,97.07,-0.377
35.88,96.53,-0.226
35.96,96.07,-0.164
36.04,95.65,-0.144
36.12,95.24,-0.137
36.20,94.84,-0.133
36.28,94.44,-0.132
36.36,94.04,-0.130
36.44,93.64,-0.129
36.52,93.24,-0.128
36.60,92.84,-0.127
36.68,92.44,-0.127
36.76,92.04,-0.126
36.84,91.64,-0.126
36.92,91.24,-0.126
37.00,90.84,-0.125
37.08,90.44,-0.125
37.16,90.04,-0.125
37.24,89.64,-0.125
37.32,89.24,-0.124
37.40,88.84,-0.124
37.48,88.44,-0.124
37.56,88.04,-0.124
37.64,87.64,-0.124
37.72,87.24,-0.123
37.80,86.84,-0.123
37.88,86.44,-0.123
37.96,86.04,-0.122
38.04,85.64,-0.122
38.12,85.24,-0.122
38.20,84.84,-0.122
38.28,84.44,-0.122
38.36,84.04,-0.122
38.44,83.64,-0.121
38.52,83.24,-0.121
38.60,82.85,-0.121
38.68,82.45,-0.121
38.76,82.04,-0.120
38.84,81.65,-0.120
38.92,81.24,-0.120
39.00,80.84,-0.120
39.08,80.44,-0.119
39.16,80.05,-0.119
39.24,79.65,-0.119
39.32,79.25,-0.119
39.40,78.85,-0.119
39.48,78.45,-0.119
39.56,78.05,-0.118
39.64,77.65,-0.118
39.72,77.25,-0.118
39.80,76.85,-0.118
39.88,76.45,-0.118
39.96,76.05,-0.117
40.04,75.65,-0.117
40.12,75.25,-0.117
40.20,74.85,-0.117
40.28,74.45,-0.116
40.36,74.05,-0.116
40.44,73.65,-0.116
40.52,73.25,-0.116
40.60,72.85,-0.115
40.68,72.45,-0.115
40.76,72.05,-0.114
40.84,71.65,-0.114
40.92,71.25,-0.114
41.00,70.85,-0.114
41.08,70.45,-0.114
41.16,70.05,-0.114
41.24,69.65,-0.114
41.32,69.25,-0.113
41.40,68.85,-0.113
41.48,68.45,-0.113
41.56,68.05,-0.113
41.64,67.65,-0.113
41.72,67.25,-0.112
41.80,66.85,-0.112
41.88,66.45,-0.112
41.96,66.05,-0.112
42.04,65.65,-0.112
42.12,65.25,-0.112
42.20,64.85,-0.112
42.28,64.45,-0.111
42.36,64.05,-0.111
42.44,63.65,-0.111
42.52,63.25,-0.110
42.60,62.85,-0.110
42.68,62.45,-0.110
42.76,62.05,-0.110
42.84,61.66,-0.109
42.92,61.26,-0.109
43.00,60.85,-0.109
43.08,60.45,-0.109
43.16,60.05,-0.109
43.24,59.65,-0.108
43.32,59.25,-0.108
43.40,58.85,-0.108
43.48,58.45,-0.108
43.56,58.05,-0.108
43.64,57.65,-0.107
43.72,57.26,-0.107
43.80,56.86,-0.107
43.88,56.46,-0.106
43.96,56.06,-0.106
44.04,55.66,-0.106
44.12,55.26,-0.106
44.20,54.85,-0.106
44.28,54.45,-0.106
44.36,54.05,-0.106
44.44,53.66,-0.106
44.52,53.26,-0.105
44.60,52.86,-0.105
44.68,52.46,-0.105
44.76,52.06,-0.105
44.84,51.66,-0.104
44.92,51.26,-0.104
45.00,50.86,-0.104
45.08,50.46,-0.104
45.16,50.06,-0.109
45.24,49.66,-0.108
45.32,49.26,-0.106
45.40,48.86,-0.105
45.48,48.46,-0.104
45.56,48.06,-0.103
45.64,47.66,-0.103
45.72,47.26,-0.103
45.80,46.86,-0.103
45.88,46.46,-0.102
45.96,46.06,-0.103
46.04,45.66,-0.103
46.12,45.26,-0.102
46.20,44.86,-0.102
46.28,44.46,-0.102
46.36,44.06,-0.101
46.44,43.66,-0.101
46.52,43.26,-0.100
46.60,42.86,-0.101
46.68,42.46,-0.100
46.76,42.06,-0.100
46.84,41.66,-0.100
46.92,41.26,-0.100
47.00,40.86,-0.100
47.08,40.46,-0.102
47.16,40.06,-0.101
47.24,39.67,-0.100
47.32,39.26,-0.100
47.40,38.86,-0.099
47.48,38.46,-0.099
47.56,38.06,-0.098
47.64,37.66,-0.098
47.72,37.26,-0.098
47.80,36.86,-0.098
47.88,36.46,-0.099
47.96,36.06,-0.098
48.04,35.66,-0.098
48.12,35.26,-0.097
48.20,34.86,-0.097
48.28,34.46,-0.097
48.36,34.07,-0.097
48.44,33.67,-0.097
48.52,33.27,-0.096
48.60,32.87,-0.096
48.68,32.47,-0.096
48.76,32.07,-0.095
48.84,31.67,-0.095
48.92,31.27,-0.095
49.00,,

[step]
Ramp 5.00 °C/min to 150.00 °C
Time,Temperature,Heat Flow (Normalized)
min,°C,W/g
50.00,30.08,-0.008
50.08,30.10,-0.007
50.16,30.28,0.024
50.24,30.60,0.054
50.32,30.96,0.064
50.40,31.34,0.068
50.48,31.73,0.071
50.56,32.12,0.073
50.64,32.52,0.074
50.72,32.91,0.075
50.80,33.31,0.076
50.88,33.71,0.076
50.96,34.11,0.076
51.04,34.50,0.076
51.12,34.91,0.076
51.20,35.30,0.075
51.28,35.70,0.075
51.36,36.10,0.075
51.44,36.50,0.075
51.52,36.90,0.074
51.60,37.30,0.074
51.68,37.70,0.074
51.76,38.10,0.074
51.84,38.50,0.074
51.92,38.90,0.073
52.00,39.30,0.073
52.08,39.70,0.073
52.16,40.10,0.073
52.24,40.50,0.073
52.32,40.90,0.073
52.40,41.30,0.072
52.48,41.70,0.073
52.56,42.10,0.072
52.64,42.50,0.072
52.72,42.90,0.072
52.80,43.31,0.072
52.88,43.70,0.072
52.96,44.11,0.072
53.04,44.51,0.072
53.12,44.91,0.072
53.20,45.30,0.072
53.28,45.71,0.072
53.36,46.11,0.072
53.44,46.51,0.072
53.52,46.91,0.072
53.60,47.31,0.072
53.68,47.71,0.072
53.76,48.11,0.071
53.84,48.51,0.071
53.92,48.91,0.071
54.00,49.31,0.071
54.08,49.71,0.071
54.16,50.11,0.071
54.24,50.51,0.072
54.32,50.91,0.071
54.40,51.31,0.071
54.48,51.71,0.071
54.56,52.11,0.072
54.64,52.51,0.072
54.72,52.91,0.072
54.80,53.31,0.072
54.88,53.71,0.072
54.96,54.11,0.072
55.04,54.51,0.071
55.12,54.91,0.071
55.20,55.31,0.071
55.28,55.71,0.072
55.36,56.11,0.072
55.44,56.51,0.072
55.52,56.91,0.072
55.60,57.31,0.072
55.68,57.71,0.072
55.76,58.11,0.072
55.84,58.51,0.072
55.92,58.91,0.072
56.00,59.31,0.072
56.08,59.71,0.072
56.16,60.11,0.072
56.24,60.51,0.072
56.32,60.91,0.072
56.40,61.31,0.072
56.48,61.71,0.072
56.56,62.11,0.072
56.64,62.51,0.072
56.72,62.91,0.072
56.80,63.31,0.072
56.88,63.71,0.072
56.96,64.11,0.072
57.04,64.51,0.072
57.12,64.92,0.072
57.20,65.31,0.072
57.28,65.71,0.072
57.36,66.11,0.073
57.44,66.52,0.073
57.52,66.92,0.073
57.60,67.32,0.073
57.68,67.72,0.073
57.76,68.12,0.073
57.84,68.52,0.073
57.92,68.92,0.073
58.00,69.32,0.073
58.08,69.72,0.073
58.16,70.12,0.073
58.24,70.52,0.073
58.32,70.92,0.073
58.40,71.32,0.073
58.48,71.72,0.073
58.56,72.12,0.073
58.64,72.52,0.073
58.72,72.92,0.073
58.80,73.32,0.073
58.88,73.72,0.073
58.96,74.12,0.073
59.04,74.52,0.073
59.12,74.92,0.073
59.20,75.32,0.074
59.28,75.72,0.074
59.36,76.12,0.074
59.44,76.52,0.074
59.52,76.92,0.074
59.60,77.32,0.074
59.68,77.72,0.074
59.76,78.12,0.074
59.84,78.52,0.074
59.92,78.92,0.074
60.00,79.32,0.074
60.08,79.72,0.074
60.16,80.12,0.074
60.24,80.52,0.074
60.32,80.92,0.074
60.40,81.32,0.074
60.48,81.72,0.074
60.56,82.12,0.074
60.64,82.52,0.074
60.72,82.92,0.074
60.80,83.32,0.074
60.88,83.72,0.074
60.96,84.12,0.074
61.04,84.52,0.075
61.12,84.92,0.074
61.20,85.32,0.075
61.28,85.72,0.075
61.36,86.12,0.074
61.44,86.53,0.074
61.52,86.92,0.074
61.60,87.33,0.075
61.68,87.73,0.075
61.76,88.12,0.075
61.84,88.52,0.075
61.92,88.92,0.075
62.00,89.33,0.075
62.08,89.73,0.075
62.16,90.13,0.075
62.24,90.53,0.075
62.32,90.93,0.075
62.40,91.33,0.075
62.48,91.73,0.075
62.56,92.13,0.075
62.64,92.53,0.075
62.72,92.93,0.075
62.80,93.33,0.075
62.88,93.73,0.075
62.96,94.13,0.075
63.04,94.53,0.076
63.12,94.93,0.075
63.20,95.33,0.076
63.28,95.73,0.076
63.36,96.13,0.076
63.44,96.53,0.076
63.52,96.93,0.076
63.60,97.33,0.076
63.68,97.73,0.076
63.76,98.13,0.076
63.84,98.53,0.076
63.92,98.93,0.076
64.00,99.33,0.076
64.08,99.73,0.077
64.16,100.13,0.076
64.24,100.53,0.076
64.32,100.93,0.076
64.40,101.33,0.077
64.48,101.73,0.077
64.56,102.13,0.077
64.64,102.53,0.077
64.72,102.93,0.077
64.80,103.33,0.077
64.88,103.73,0.077
64.96,104.13,0.077
65.04,104.53,0.077
65.12,104.93,0.077
65.20,105.33,0.077
65.28,105.73,0.077
65.36,106.13,0.077
65.44,106.53,0.078
65.52,106.93,0.078
65.60,107.33,0.078
65.68,107.73,0.078
65.76,108.13,0.078
65.84,108.53,0.078
65.92,108.93,0.078
66.00,109.33,0.078
66.08,109.73,0.078
66.16,110.13,0.078
66.24,110.53,0.078
66.32,110.93,0.078
66.40,111.33,0.078
66.48,111.73,0.078
66.56,112.14,0.079
66.64,112.53,0.079
66.72,112.93,0.079
66.80,113.33,0.079
66.88,113.73,0.079
66.96,114.13,0.080
67.04,114.53,0.080
67.12,114.93,0.080
67.20,115.33,0.081
67.28,115.73,0.081
67.36,116.13,0.082
67.44,116.53,0.082
67.52,116.93,0.083
67.60,117.33,0.084
67.68,117.73,0.086
67.76,118.13,0.088
67.84,118.54,0.090
67.92,118.94,0.094
68.00,119.33,0.099
68.08,119.73,0.112
68.16,120.13,0.146
68.24,120.52,0.209
68.32,120.91,0.346
68.40,121.28,0.755
68.48,121.58,1.840
68.56,121.79,3.614
68.64,121.96,5.261
68.72,122.18,6.000
68.80,122.54,5.844
68.88,122.98,5.279
68.96,123.70,1.268
69.04,124.37,0.544
69.12,124.87,0.277
69.20,125.31,0.178
69.28,125.73,0.143
69.36,126.13,0.130
69.44,126.53,0.125
69.52,126.93,0.123
69.60,127.33,0.122
69.68,127.74,0.121
69.76,128.13,0.120
69.84,128.53,0.119
69.92,128.93,0.119
70.00,129.33,0.118
70.08,129.73,0.118
70.16,130.13,0.118
70.24,130.54,0.118
70.32,130.93,0.118
70.40,131.33,0.118
70.48,131.74,0.118
70.56,132.13,0.119
70.64,132.54,0.119
70.72,132.93,0.119
70.80,133.34,0.119
70.88,133.74,0.119
70.96,134.14,0.119
71.04,134.54,0.119
71.12,134.94,0.119
71.20,135.34,0.119
71.28,135.74,0.119
71.36,136.13,0.119
71.44,136.54,0.119
71.52,136.94,0.119
71.60,137.34,0.120
71.68,137.74,0.120
71.76,138.14,0.119
71.84,138.54,0.120
71.92,138.94,0.120
72.00,139.34,0.120
72.08,139.74,0.120
72.16,140.14,0.120
72.24,140.54,0.120
72.32,140.94,0.120
72.40,141.34,0.120
72.48,141.74,0.120
72.56,142.14,0.121
72.64,142.54,0.121
72.72,142.94,0.121
72.80,143.34,0.121
72.88,143.74,0.121
72.96,144.14,0.121
73.04,144.54,0.121
73.12,144.94,0.121
73.20,145.34,0.121
73.28,145.74,0.121
73.36,146.14,0.121
73.44,146.54,0.121
73.52,146.94,0.121
73.60,147.34,0.122
73.68,147.74,0.121
73.76,148.14,0.122
73.84,148.54,0.122
73.92,148.94,0.122
74.00,,

[step]
Ramp 5.00 °C/min to 30.00 °C
Time,Temperature,Heat Flow (Normalized)
min,°C,W/g
75.00,150.06,-0.042
75.08,150.04,-0.043
75.16,149.86,-0.116
75.24,149.54,-0.175
75.32,149.17,-0.193
75.40,148.79,-0.199
75.48,148.39,-0.201
75.56,148.00,-0.203
75.64,147.60,-0.203
75.72,147.20,-0.204
75.80,146.81,-0.204
75.88,146.41,-0.204
75.96,146.01,-0.204
76.04,145.61,-0.203
76.12,145.21,-0.203
76.20,144.81,-0.202
76.28,144.42,-0.202
76.36,144.02,-0.201
76.44,143.62,-0.200
76.52,143.22,-0.200
76.60,142.82,-0.200
76.68,142.42,-0.199
76.76,142.02,-0.198
76.84,141.62,-0.198
76.92,141.22,-0.197
77.00,140.82,-0.197
77.08,140.42,-0.196
77.16,140.02,-0.196
77.24,139.62,-0.195
77.32,139.22,-0.195
77.40,138.82,-0.194
77.48,138.42,-0.194
77.56,138.02,-0.193
77.64,137.62,-0.193
77.72,137.22,-0.192
77.80,136.82,-0.192
77.88,136.42,-0.192
77.96,136.02,-0.192
78.04,135.62,-0.191
78.12,135.22,-0.191
78.20,134.83,-0.190
78.28,134.43,-0.190
78.36,134.03,-0.189
78.44,133.62,-0.189
78.52,133.22,-0.189
78.60,132.83,-0.188
78.68,132.43,-0.188
78.76,132.03,-0.187
78.84,131.62,-0.187
78.92,131.23,-0.187
79.00,130.83,-0.187
79.08,130.43,-0.186
79.16,130.03,-0.186
79.24,129.63,-0.186
79.32,129.23,-0.185
79.40,128.83,-0.185
79.48,128.43,-0.185
79.56,128.03,-0.185
79.64,127.63,-0.184
79.72,127.23,-0.184
79.80,126.83,-0.184
79.88,126.43,-0.183
79.96,126.03,-0.183
80.04,125.63,-0.183
80.12,125.23,-0.182
80.20,124.83,-0.182
80.28,124.43,-0.182
80.36,124.03,-0.182
80.44,123.63,-0.181
80.52,123.23,-0.181
80.60,122.83,-0.181
80.68,122.43,-0.180
80.76,122.03,-0.180
80.84,121.63,-0.180
80.92,121.23,-0.180
81.00,120.83,-0.179
81.08,120.43,-0.179
81.16,120.03,-0.179
81.24,119.63,-0.179
81.32,119.23,-0.178
81.40,118.83,-0.178
81.48,118.43,-0.177
81.56,118.03,-0.177
81.64,117.63,-0.177
81.72,117.23,-0.177
81.80,116.83,-0.177
81.88,116.43,-0.176
81.96,116.03,-0.176
82.04,115.63,-0.176
82.12,115.24,-0.175
82.20,114.83,-0.175
82.28,114.44,-0.175
82.36,114.04,-0.174
82.44,113.64,-0.174
82.52,113.24,-0.174
82.60,112.84,-0.173
82.68,112.44,-0.173
82.76,112.04,-0.173
82.84,111.64,-0.173
82.92,111.24,-0.173
83.00,110.84,-0.173
83.08,110.44,-0.172
83.16,110.04,-0.172
83.24,109.64,-0.172
83.32,109.24,-0.172
83.40,108.84,-0.172
83.48,108.44,-0.171
83.56,108.04,-0.171
83.64,107.64,-0.171
83.72,107.24,-0.171
83.80,106.84,-0.171
83.88,106.44,-0.170
83.96,106.04,-0.170
84.04,105.64,-0.170
84.12,105.24,-0.170
84.20,104.84,-0.169
84.28,104.44,-0.169
84.36,104.04,-0.169
84.44,103.64,-0.169
84.52,103.24,-0.168
84.60,102.84,-0.168
84.68,102.44,-0.168
84.76,102.04,-0.168
84.84,101.64,-0.168
84.92,101.24,-0.167
85.00,100.84,-0.167
85.08,100.44,-0.167
85.16,100.04,-0.167
85.24,99.64,-0.166
85.32,99.24,-0.166
85.40,98.84,-0.166
85.48,98.44,-0.166
85.56,98.04,-0.165
85.64,97.64,-0.165
85.72,100.54,-92.517
85.80,98.24,-1.473
85.88,96.96,-0.670
85.96,96.24,-0.336
86.04,95.71,-0.205
86.12,95.27,-0.161
86.20,94.85,-0.142
86.28,94.44,-0.136
86.36,94.04,-0.133
86.44,93.64,-0.132
86.52,93.24,-0.130
86.60,92.84,-0.129
86.68,92.44,-0.128
86.76,92.04,-0.126
86.84,91.64,-0.126
86.92,91.24,-0.126
87.00,90.84,-0.126
87.08,90.44,-0.125
87.16,90.04,-0.125
87.24,89.64,-0.124
87.32,89.24,-0.124
87.40,88.84,-0.123
87.48,88.44,-0.124
87.56,88.04,-0.123
87.64,87.64,-0.123
87.72,87.24,-0.123
87.80,86.84,-0.123
87.88,86.44,-0.122
87.96,86.04,-0.122
88.04,85.64,-0.122
88.12,85.24,-0.122
88.20,84.84,-0.121
88.28,84.44,-0.121
88.36,84.04,-0.121
88.44,83.64,-0.121
88.52,83.24,-0.121
88.60,82.84,-0.120
88.68,82.45,-0.120
88.76,82.05,-0.120
88.84,81.65,-0.120
88.92,81.25,-0.120
89.00,80.85,-0.120
89.08,80.45,-0.119
89.16,80.05,-0.119
89.24,79.65,-0.119
89.32,79.25,-0.118
89.40,78.85,-0.118
89.48,78.45,-0.118
89.56,78.05,-0.118
89.64,77.65,-0.117
89.72,77.25,-0.117
89.80,76.85,-0.117
89.88,76.45,-0.117
89.96,76.05,-0.117
90.04,75.65,-0.117
90.12,75.25,-0.117
90.20,74.85,-0.116
90.28,74.45,-0.116
90.36,74.05,-0.116
90.44,73.65,-0.116
90.52,73.25,-0.116
90.60,72.85,-0.116
90.68,72.45,-0.115
90.76,72.05,-0.115
90.84,71.65,-0.115
90.92,71.25,-0.114
91.00,70.85,-0.114
91.08,70.45,-0.114
91.16,70.05,-0.114
91.24,69.65,-0.114
91.32,69.25,-0.114
91.40,68.85,-0.113
91.48,68.45,-0.113
91.56,68.05,-0.113
91.64,67.65,-0.113
91.72,67.25,-0.113
91.80,66.85,-0.112
91.88,66.45,-0.112
91.96,66.05,-0.112
92.04,65.65,-0.112
92.12,65.25,-0.112
92.20,64.85,-0.112
92.28,64.45,-0.112
92.36,64.05,-0.111
92.44,63.65,-0.111
92.52,63.25,-0.111
92.60,62.85,-0.110
92.68,62.45,-0.110
92.76,62.05,-0.110
92.84,61.65,-0.110
92.92,61.25,-0.109
93.00,60.85,-0.109
93.08,60.46,-0.111
93.16,60.06,-0.110
93.24,59.66,-0.109
93.32,59.26,-0.109
93.40,58.86,-0.109
93.48,58.46,-0.108
93.56,58.06,-0.108
93.64,57.66,-0.108
93.72,57.26,-0.107
93.80,56.86,-0.107
93.88,56.46,-0.107
93.96,56.06,-0.107
94.04,55.66,-0.106
94.12,55.26,-0.106
94.20,54.86,-0.106
94.28,54.46,-0.106
94.36,54.06,-0.106
94.44,53.66,-0.106
94.52,53.26,-0.106
94.60,52.86,-0.106
94.68,52.46,-0.106
94.76,52.06,-0.105
94.84,51.66,-0.105
94.92,51.26,-0.106
95.00,50.86,-0.104
95.08,50.46,-0.104
95.16,50.06,-0.104
95.24,49.66,-0.104
95.32,49.26,-0.105
95.40,48.86,-0.105
95.48,48.46,-0.104
95.56,48.06,-0.103
95.64,47.66,-0.103
95.72,47.26,-0.103
95.80,46.86,-0.103
95.88,46.46,-0.102
95.96,46.06,-0.102
96.04,45.66,-0.101
96.12,45.26,-0.102
96.20,44.86,-0.105
96.28,44.46,-0.103
96.36,44.06,-0.103
96.44,43.66,-0.102
96.52,43.26,-0.102
96.60,42.86,-0.101
96.68,42.46,-0.101
96.76,42.06,-0.101
96.84,41.66,-0.100
96.92,41.27,-0.100
97.00,40.87,-0.100
97.08,40.46,-0.101
97.16,40.06,-0.100
97.24,39.66,-0.100
97.32,39.26,-0.099
97.40,38.86,-0.099
97.48,38.47,-0.098
97.56,38.07,-0.098
97.64,37.66,-0.098
97.72,37.27,-0.097
97.80,36.86,-0.097
97.88,36.46,-0.097
97.96,36.06,-0.097
98.04,35.66,-0.097
98.12,35.27,-0.097
98.20,34.86,-0.096
98.28,34.46,-0.096
98.36,34.07,-0.096
98.44,33.67,-0.096
98.52,33.27,-0.096
98.60,32.87,-0.096
98.68,32.47,-0.095
98.76,32.07,-0.095
98.84,31.67,-0.095
98.92,31.27,-0.094
99.00,,