File: Data/Indium_DSC_Data.csv
Instrument name,DSC2A-00468
Operator,Jeff Yarger
Sample name,Indium
[step]
Ramp 10.00 °C/min to 200.00 °C
Time,Temperature,Heat Flow (Normalized)
min,°C,W/g
36.00,30.13,-0.010
36.06,30.15,-0.004
36.12,30.29,0.045
36.17,30.63,0.072
36.23,31.08,0.077
36.29,31.58,0.081
36.34,32.11,0.083
36.40,32.65,0.084
36.46,33.20,0.084
36.51,33.75,0.085
36.57,34.31,0.085
36.63,34.87,0.085
36.68,35.43,0.086
36.74,35.99,0.086
36.80,36.56,0.086
36.85,37.12,0.086
36.91,37.68,0.086
36.97,38.25,0.086
37.02,38.81,0.087
37.08,39.38,0.087
37.14,39.94,0.087
37.19,40.51,0.087
37.25,41.07,0.087
37.31,41.64,0.087
37.36,42.21,0.087
37.42,42.77,0.087
37.48,43.34,0.087
37.53,43.91,0.087
37.59,44.47,0.087
37.65,45.04,0.087
37.70,45.61,0.087
37.76,46.17,0.087
37.82,46.74,0.087
37.87,47.31,0.087
37.93,47.87,0.087
37.99,48.44,0.087
38.04,49.01,0.087
38.10,49.58,0.087
38.16,50.14,0.087
38.21,50.71,0.087
38.27,51.28,0.087
38.33,51.85,0.087
38.38,52.41,0.087
38.44,52.98,0.087
38.50,53.55,0.087
38.55,54.11,0.087
38.61,54.68,0.087
38.67,55.25,0.087
38.72,55.82,0.087
38.78,56.38,0.087
38.84,56.95,0.087
38.89,57.52,0.087
38.95,58.09,0.087
39.01,58.65,0.087
39.06,59.22,0.087
39.12,59.79,0.087
39.18,60.35,0.087
39.23,60.92,0.087
39.29,61.49,0.087
39.35,62.06,0.087
39.40,62.62,0.087
39.46,63.19,0.087
39.52,63.76,0.087
39.57,64.33,0.087
39.63,64.89,0.087
39.69,65.46,0.087
39.74,66.03,0.087
39.80,66.60,0.087
39.86,67.16,0.087
39.91,67.73,0.087
39.97,68.30,0.087
40.03,68.86,0.087
40.08,69.43,0.087
40.14,70.00,0.087
40.20,70.57,0.087
40.25,71.13,0.087
40.31,71.70,0.087
40.37,72.27,0.087
40.42,72.83,0.087
40.48,73.40,0.087
40.54,73.97,0.087
40.59,74.54,0.087
40.65,75.10,0.088
40.71,75.67,0.088
40.76,76.24,0.088
40.82,76.80,0.088
40.88,77.37,0.088
40.93,77.94,0.088
40.99,78.51,0.088
41.05,79.07,0.088
41.10,79.64,0.088
41.16,80.21,0.088
41.22,80.78,0.088
41.27,81.34,0.088
41.33,81.91,0.088
41.39,82.48,0.088
41.44,83.04,0.088
41.50,83.61,0.088
41.56,84.18,0.088
41.61,84.75,0.088
41.67,85.31,0.088
41.73,85.88,0.088
41.78,86.45,0.088
41.84,87.01,0.088
41.90,87.58,0.088
41.95,88.15,0.088
42.01,88.72,0.088
42.07,89.28,0.088
42.12,89.85,0.088
42.18,90.42,0.089
42.24,90.99,0.089
42.29,91.55,0.089
42.35,92.12,0.089
42.41,92.69,0.089
42.46,93.26,0.089
42.52,93.82,0.089
42.58,94.39,0.089
42.63,94.96,0.089
42.69,95.53,0.089
42.75,96.09,0.089
42.80,96.66,0.089
42.86,97.23,0.089
42.92,97.79,0.090
42.97,98.36,0.090
43.03,98.93,0.090
43.09,99.50,0.090
43.14,100.06,0.090
43.20,100.63,0.090
43.26,101.20,0.090
43.31,101.76,0.090
43.37,102.33,0.090
43.43,102.90,0.090
43.48,103.46,0.090
43.54,104.03,0.090
43.60,104.60,0.090
43.65,105.16,0.091
43.71,105.73,0.091
43.77,106.30,0.091
43.82,106.87,0.091
43.88,107.43,0.091
43.94,108.00,0.091
43.99,108.57,0.091
44.05,109.14,0.091
44.11,109.70,0.091
44.16,110.27,0.091
44.22,110.84,0.091
44.28,111.40,0.091
44.33,111.97,0.091
44.39,112.54,0.092
44.45,113.10,0.092
44.50,113.67,0.092
44.56,114.24,0.092
44.62,114.81,0.092
44.67,115.38,0.092
44.73,115.94,0.092
44.79,116.51,0.092
44.84,117.08,0.092
44.90,117.64,0.092
44.96,118.21,0.092
45.01,118.78,0.092
45.07,119.35,0.092
45.13,119.91,0.093
45.18,120.48,0.093
45.24,121.05,0.093
45.30,121.61,0.093
45.35,122.18,0.093
45.41,122.75,0.093
45.47,123.32,0.093
45.52,123.88,0.093
45.58,124.45,0.093
45.64,125.02,0.093
45.69,125.58,0.093
45.75,126.15,0.093
45.81,126.72,0.093
45.86,127.28,0.093
45.92,127.85,0.093
45.98,128.42,0.094
46.03,128.98,0.094
46.09,129.55,0.094
46.15,130.12,0.094
46.20,130.69,0.094
46.26,131.25,0.094
46.32,131.82,0.094
46.37,132.39,0.094
46.43,132.95,0.094
46.49,133.52,0.094
46.54,134.09,0.094
46.60,134.66,0.094
46.66,135.22,0.094
46.71,135.79,0.094
46.77,136.36,0.095
46.83,136.92,0.095
46.88,137.49,0.095
46.94,138.06,0.095
47.00,138.63,0.095
47.05,139.19,0.095
47.11,139.76,0.095
47.17,140.33,0.095
47.22,140.89,0.095
47.28,141.46,0.095
47.34,142.03,0.096
47.39,142.59,0.096
47.45,143.16,0.096
47.51,143.73,0.096
47.56,144.30,0.096
47.62,144.86,0.096
47.68,145.43,0.096
47.73,146.00,0.096
47.79,146.56,0.096
47.85,147.13,0.097
47.90,147.70,0.097
47.96,148.27,0.097
48.02,148.83,0.097
48.07,149.40,0.097
48.13,149.97,0.097
48.19,150.53,0.097
48.24,151.10,0.097
48.30,151.67,0.097
48.36,152.23,0.097
48.41,152.80,0.098
48.47,153.37,0.098
48.53,153.94,0.098
48.58,154.50,0.098
48.64,155.07,0.098
48.70,155.64,0.098
48.75,156.20,0.098
48.81,156.74,0.342
48.87,157.04,1.039
48.92,157.29,1.608
48.98,157.56,2.017
49.04,158.01,1.970
49.09,158.67,1.240
49.15,159.64,0.422
49.21,160.49,0.248
49.26,161.19,0.168
49.32,161.82,0.131
49.38,162.42,0.114
49.43,163.00,0.106
49.49,163.57,0.103
49.55,164.14,0.101
49.60,164.71,0.101
49.66,165.28,0.100
49.72,165.85,0.100
49.77,166.41,0.100
49.83,166.98,0.100
49.89,167.55,0.100
49.94,168.12,0.100
50.00,168.68,0.100
50.06,169.25,0.100
50.11,169.81,0.100
50.17,170.38,0.100
50.23,170.95,0.100
50.28,171.51,0.100
50.34,172.08,0.100
50.40,172.65,0.100
50.45,173.22,0.100
50.51,173.78,0.100
50.57,174.35,0.100
50.62,174.92,0.100
50.68,175.48,0.100
50.74,176.05,0.100
50.79,176.62,0.101
50.85,177.19,0.101
50.91,177.75,0.101
50.96,178.32,0.101
51.02,178.89,0.101
51.08,179.45,0.101
51.13,180.02,0.101
51.19,180.59,0.101
51.25,181.15,0.101
51.30,181.72,0.101
51.36,182.29,0.101
51.42,182.85,0.101
51.47,183.42,0.102
51.53,183.99,0.102
51.59,184.56,0.102
51.64,185.12,0.102
51.70,185.69,0.102
51.76,186.26,0.102
51.81,186.82,0.102
51.87,187.39,0.102
51.93,187.96,0.102
51.98,188.52,0.102
52.04,189.09,0.102
52.10,189.66,0.103
52.15,190.23,0.103
52.21,190.79,0.103
52.27,191.36,0.103
52.32,191.93,0.103
52.38,192.50,0.103
52.44,193.06,0.103
52.49,193.63,0.103
52.55,194.20,0.103
52.61,194.76,0.104
52.66,195.33,0.104
52.72,195.90,0.104
52.78,196.46,0.104
52.83,197.03,0.104
52.89,197.60,0.104
52.94,198.13,0.104

[step]
Ramp 10.00 °C/min to 30.00 °C
Time,Temperature,Heat Flow (Normalized)
min,°C,W/g
54.00,200.09,-0.006
54.06,200.08,-0.013
54.12,199.95,-0.061
54.17,199.61,-0.096
54.23,199.14,-0.107
54.29,198.62,-0.110
54.34,198.08,-0.112
54.40,197.53,-0.113
54.46,196.98,-0.114
54.51,196.42,-0.114
54.57,195.86,-0.114
54.63,195.30,-0.115
54.68,194.74,-0.115
54.74,194.18,-0.115
54.80,193.62,-0.116
54.85,193.05,-0.116
54.91,192.49,-0.116
54.97,191.93,-0.116
55.02,191.36,-0.116
55.08,190.80,-0.116
55.14,190.24,-0.116
55.19,189.67,-0.116
55.25,189.11,-0.116
55.31,188.54,-0.117
55.36,187.98,-0.116
55.42,187.41,-0.117
55.48,186.84,-0.117
55.53,186.28,-0.117
55.59,185.71,-0.116
55.65,185.15,-0.116
55.70,184.58,-0.116
55.76,184.02,-0.116
55.82,183.45,-0.116
55.87,182.89,-0.116
55.93,182.32,-0.116
55.99,181.75,-0.116
56.04,181.19,-0.116
56.10,180.62,-0.116
56.16,180.06,-0.116
56.21,179.49,-0.116
56.27,178.93,-0.116
56.33,178.36,-0.116
56.38,177.79,-0.116
56.44,177.23,-0.116
56.50,176.66,-0.116
56.55,176.09,-0.116
56.61,175.53,-0.116
56.67,174.96,-0.116
56.72,174.40,-0.116
56.78,173.83,-0.116
56.84,173.26,-0.116
56.89,172.70,-0.116
56.95,172.13,-0.116
57.01,171.57,-0.116
57.06,171.00,-0.116
57.12,170.43,-0.116
57.18,169.87,-0.116
57.23,169.30,-0.116
57.29,168.74,-0.116
57.35,168.17,-0.116
57.40,167.60,-0.116
57.46,167.04,-0.116
57.52,166.47,-0.116
57.57,165.91,-0.116
57.63,165.34,-0.115
57.69,164.77,-0.115
57.74,164.21,-0.115
57.80,163.64,-0.115
57.86,163.07,-0.115
57.91,162.51,-0.115
57.97,161.94,-0.115
58.03,161.38,-0.115
58.08,160.81,-0.115
58.14,160.24,-0.115
58.20,159.68,-0.115
58.25,159.11,-0.115
58.31,158.55,-0.115
58.37,157.98,-0.115
58.42,157.41,-0.115
58.48,156.85,-0.115
58.54,156.28,-0.115
58.59,155.71,-0.115
58.65,155.15,-0.115
58.71,154.58,-0.118
58.76,154.75,-4.256
58.82,154.86,-2.583
58.88,154.18,-1.588
58.93,153.08,-0.337
58.99,152.11,-0.218
59.05,151.35,-0.164
59.10,150.70,-0.138
59.16,150.09,-0.127
59.22,149.51,-0.121
59.27,148.93,-0.119
59.33,148.36,-0.117
59.39,147.79,-0.117
59.44,147.22,-0.116
59.50,146.66,-0.116
59.56,146.09,-0.116
59.61,145.52,-0.116
59.67,144.96,-0.116
59.73,144.39,-0.115
59.78,143.83,-0.115
59.84,143.26,-0.115
59.90,142.69,-0.115
59.95,142.13,-0.115
60.01,141.56,-0.115
60.07,141.00,-0.115
60.12,140.43,-0.115
60.18,139.86,-0.115
60.24,139.30,-0.115
60.29,138.73,-0.115
60.35,138.16,-0.115
60.41,137.60,-0.115
60.46,137.03,-0.115
60.52,136.47,-0.115
60.58,135.90,-0.115
60.63,135.33,-0.115
60.69,134.77,-0.114
60.75,134.20,-0.114
60.80,133.63,-0.114
60.86,133.07,-0.114
60.92,132.50,-0.114
60.97,131.94,-0.114
61.03,131.37,-0.114
61.09,130.80,-0.114
61.14,130.24,-0.114
61.20,129.67,-0.114
61.26,129.11,-0.114
61.31,128.54,-0.114
61.37,127.97,-0.114
61.43,127.41,-0.114
61.48,126.84,-0.114
61.54,126.28,-0.114
61.60,125.71,-0.114
61.65,125.14,-0.114
61.71,124.58,-0.114
61.77,124.01,-0.114
61.82,123.44,-0.114
61.88,122.88,-0.114
61.94,122.31,-0.114
61.99,121.75,-0.114
62.05,121.18,-0.114
62.11,120.61,-0.114
62.16,120.05,-0.114
62.22,119.48,-0.114
62.28,118.92,-0.114
62.33,118.35,-0.114
62.39,117.78,-0.114
62.45,117.22,-0.113
62.50,116.65,-0.113
62.56,116.08,-0.113
62.62,115.52,-0.113
62.67,114.95,-0.113
62.73,114.39,-0.113
62.79,113.82,-0.113
62.84,113.25,-0.113
62.90,112.69,-0.113
62.96,112.12,-0.113
63.01,111.56,-0.113
63.07,110.99,-0.113
63.13,110.42,-0.113
63.18,109.86,-0.113
63.24,109.29,-0.113
63.30,108.73,-0.113
63.35,108.16,-0.113
63.41,107.59,-0.113
63.47,107.02,-0.113
63.52,106.46,-0.113
63.58,105.89,-0.113
63.64,105.33,-0.113
63.69,104.76,-0.113
63.75,104.19,-0.113
63.81,103.63,-0.113
63.86,103.06,-0.112
63.92,102.50,-0.112
63.98,101.93,-0.112
64.03,101.36,-0.112
64.09,100.80,-0.112
64.15,100.23,-0.112
64.20,99.66,-0.112
64.26,99.10,-0.112
64.32,98.53,-0.112
64.37,97.97,-0.112
64.43,97.40,-0.112
64.49,96.83,-0.112
64.54,96.27,-0.112
64.60,95.70,-0.112
64.66,95.14,-0.112
64.71,94.57,-0.112
64.77,94.00,-0.112
64.83,93.44,-0.112
64.88,92.87,-0.111
64.94,92.31,-0.111
65.00,91.74,-0.111
65.05,91.17,-0.111
65.11,90.61,-0.111
65.17,90.04,-0.111
65.22,89.47,-0.111
65.28,88.91,-0.111
65.34,88.34,-0.111
65.39,87.78,-0.111
65.45,87.21,-0.111
65.51,86.64,-0.111
65.56,86.08,-0.111
65.62,85.51,-0.111
65.68,84.95,-0.110
65.73,84.38,-0.110
65.79,83.81,-0.110
65.85,83.25,-0.110
65.90,82.68,-0.110
65.96,82.11,-0.110
66.02,81.55,-0.110
66.07,80.98,-0.110
66.13,80.41,-0.110
66.19,79.85,-0.110
66.24,79.28,-0.110
66.30,78.72,-0.110
66.36,78.15,-0.110
66.41,77.58,-0.110
66.47,77.02,-0.110
66.53,76.45,-0.110
66.58,75.89,-0.110
66.64,75.32,-0.110
66.70,74.75,-0.110
66.75,74.19,-0.110
66.81,73.62,-0.110
66.87,73.06,-0.110
66.92,72.49,-0.110
66.98,71.92,-0.110
67.04,71.36,-0.110
67.09,70.79,-0.110
67.15,70.22,-0.110
67.21,69.66,-0.110
67.26,69.09,-0.110
67.32,68.53,-0.110
67.38,67.96,-0.110
67.43,67.39,-0.110
67.49,66.83,-0.109
67.55,66.26,-0.109
67.60,65.69,-0.109
67.66,65.13,-0.109
67.72,64.56,-0.109
67.77,64.00,-0.109
67.83,63.43,-0.109
67.89,62.86,-0.109
67.94,62.30,-0.109
68.00,61.73,-0.109
68.06,61.17,-0.109
68.11,60.60,-0.109
68.17,60.03,-0.109
68.23,59.47,-0.109
68.28,58.90,-0.109
68.34,58.34,-0.109
68.40,57.77,-0.109
68.45,57.20,-0.109
68.51,56.64,-0.109
68.57,56.07,-0.109
68.62,55.51,-0.109
68.68,54.94,-0.108
68.74,54.37,-0.108
68.79,53.81,-0.108
68.85,53.24,-0.108
68.91,52.67,-0.108
68.96,52.11,-0.108
69.02,51.54,-0.108
69.08,50.97,-0.108
69.13,50.41,-0.108
69.19,49.84,-0.108
69.25,49.28,-0.108
69.30,48.71,-0.108
69.36,48.15,-0.108
69.42,47.58,-0.108
69.47,47.01,-0.107
69.53,46.45,-0.107
69.59,45.88,-0.107
69.64,45.31,-0.107
69.70,44.75,-0.107
69.76,44.18,-0.107
69.81,43.62,-0.107
69.87,43.05,-0.107
69.93,42.48,-0.107
69.98,41.92,-0.107
70.04,41.35,-0.107
70.10,40.79,-0.107
70.15,40.22,-0.107
70.21,39.65,-0.106
70.27,39.09,-0.106
70.32,38.52,-0.106
70.38,37.95,-0.106
70.44,37.39,-0.106
70.49,36.82,-0.106
70.55,36.26,-0.106
70.61,35.69,-0.106
70.66,35.12,-0.106
70.72,34.56,-0.106
70.78,33.99,-0.106
70.83,33.43,-0.106
70.89,32.86,-0.106
70.94,32.33,-0.105